LabVIEW Measurement	
Writer_Version	0.92
Reader_Version	1
Separator	Tab
Multi_Headings	Yes
X_Columns	One
Time_Pref	Absolute
Operator	LHRI
Description	This is a HULC measurement file.
Date	2010/10/18
Time	19:36:39.986
***End_of_Header***	
	
Channels	10										
Samples	1629	1629	1629	1629	1629	1629	1629	1629	1629	1629	
Date	2010/10/18	2010/10/18	2010/10/18	2010/10/18	2010/10/18	2010/10/18	2010/10/18	2010/10/18	2010/10/18	2010/10/18	
Time	19:36:56.938999	19:36:56.938999	19:36:56.938999	19:36:56.938999	19:36:56.938999	19:36:56.938999	19:36:56.938999	19:36:56.938999	19:36:56.938999	19:36:56.938999	
X_Dimension	Time	Time	Time	Time	Time	Time	Time	Time	Time	Time	
X0	2.1833120002746582E+3	2.1833120002746582E+3	2.1833120002746582E+3	2.1833120002746582E+3	2.1833120002746582E+3	2.1833120002746582E+3	2.1833120002746582E+3	2.1833120002746582E+3	2.1833120002746582E+3	2.1833120002746582E+3	
Delta_X	0.010000	0.010000	0.010000	0.010000	0.010000	0.010000	0.010000	0.010000	0.010000	0.010000	
***End_of_Header***											
X_Value	Joint Angle (Resampled)	Brachialis Motor Mount (Prime Mover) (Resampled)	Biceps (Resampled)	Brachialis (Resampled)	Brachioradialis (Resampled)	Supinator (Resampled)	Pronator Terres (Resampled)	Brachialis Motor Mount (Resampled)	Triceps Motor Mount (Resampled)	Biceps Motor Mount (Resampled)	Comment
2183.312000	-9.135653	3.951489	3.951489	3.951489	0.000000	30.000000	0.000000	3.951489	12.625440	3.929788
2183.322000	-9.135653	3.981910	3.981910	3.981910	0.000000	30.000000	0.000000	4.012331	12.428692	3.920089
2183.332000	-9.135653	3.987994	3.987994	3.987994	0.000000	30.000000	0.000000	4.000163	12.170461	3.929788
2183.342000	-9.135653	3.991037	3.991037	3.991037	0.000000	30.000000	0.000000	4.000163	11.949120	3.968582
2183.352000	-9.135653	3.990428	3.990428	3.990428	0.000000	30.000000	0.000000	3.987994	11.653999	3.842499
2183.362000	-9.135653	3.992051	3.992051	3.992051	0.000000	30.000000	0.000000	4.000163	11.383471	3.910390
2183.372000	-9.131861	3.991471	3.991471	3.991471	0.000000	30.000000	0.000000	3.987994	10.756339	3.871596
2183.382000	-9.135653	3.995600	3.995600	3.995600	0.000000	30.000000	0.000000	4.024500	10.424327	3.871596
2183.392000	-9.135653	3.997459	3.997459	3.997459	0.000000	30.000000	0.000000	4.012331	10.116909	3.871596
2183.402000	-9.125278	3.998946	3.998946	3.998946	0.000000	30.000000	0.000000	4.012331	10.116909	3.871596
2183.412000	-9.113036	4.012331	4.012331	4.012331	0.000000	30.000000	0.000000	4.085342	9.551260	3.881294
2183.422000	-9.113036	4.025717	4.025717	4.025717	0.000000	30.000000	0.000000	4.146184	9.305326	3.929788
2183.432000	-9.113036	4.046403	4.046403	4.046403	0.000000	30.000000	0.000000	4.207026	9.047095	3.890993
2183.442000	-9.113036	4.078041	4.078041	4.078041	0.000000	30.000000	0.000000	4.316542	8.887237	4.007377
2183.452000	-9.113036	4.112113	4.112113	4.112113	0.000000	30.000000	0.000000	4.328711	8.776567	4.065569
2183.462000	-9.113036	4.171738	4.171738	4.171738	0.000000	30.000000	0.000000	4.596417	8.678193	4.191652
2183.472000	-9.113036	4.244749	4.244749	4.244749	0.000000	30.000000	0.000000	4.718101	8.690490	4.240145
2183.482000	-9.113036	4.328711	4.328711	4.328711	0.000000	30.000000	0.000000	4.864123	8.665897	4.492311
2183.492000	-9.100925	4.434576	4.434576	4.434576	0.000000	30.000000	0.000000	5.070986	8.751974	4.492311
2183.502000	-9.092475	4.559911	4.559911	4.559911	0.000000	30.000000	0.000000	5.265681	8.850347	4.637791
2183.512000	-9.092475	4.701065	4.701065	4.701065	0.000000	30.000000	0.000000	5.496882	8.973314	4.812367
2183.522000	-9.082100	4.856821	4.856821	4.856821	0.000000	30.000000	0.000000	5.703745	9.206952	4.986943
2183.532000	-9.082100	5.029613	5.029613	5.029613	0.000000	30.000000	0.000000	5.934946	9.428293	5.190616
2183.542000	-9.073652	5.220658	5.220658	5.220658	0.000000	30.000000	0.000000	6.226989	9.674227	5.413685
2183.552000	-9.073652	5.433606	5.433606	5.433606	0.000000	30.000000	0.000000	6.458189	9.907865	5.588261
2183.562000	-9.054830	5.647770	5.647770	5.647770	0.000000	30.000000	0.000000	6.738063	10.178393	5.772536
2183.572000	-9.054830	5.876537	5.876537	5.876537	0.000000	30.000000	0.000000	7.005769	10.559591	6.053798
2183.582000	-9.054830	6.118689	6.118689	6.118689	0.000000	30.000000	0.000000	7.285643	10.817822	6.305963
2183.592000	-9.054830	6.370576	6.370576	6.370576	0.000000	30.000000	0.000000	7.589855	11.186724	6.558129
2183.602000	-9.053089	6.628547	6.628547	6.628547	0.000000	30.000000	0.000000	7.845392	11.543329	6.849089
2183.612000	-9.053089	6.896253	6.896253	6.896253	0.000000	30.000000	0.000000	8.173940	11.899934	7.120652
2183.622000	-9.053089	7.172477	7.172477	7.172477	0.000000	30.000000	0.000000	8.465983	12.256538	7.401914
2183.632000	-9.053089	7.456002	7.456002	7.456002	0.000000	30.000000	0.000000	8.770194	12.674627	7.741367
2183.642000	-9.053089	7.744394	7.744394	7.744394	0.000000	30.000000	0.000000	9.110910	13.043528	8.051725
2183.652000	-9.053089	8.041304	8.041304	8.041304	0.000000	30.000000	0.000000	9.427290	13.449320	8.323288
2183.662000	-9.042903	8.345515	8.345515	8.345515	0.000000	30.000000	0.000000	9.780175	13.855112	8.682139
2183.672000	-9.046698	8.655810	8.655810	8.655810	0.000000	30.000000	0.000000	10.108723	14.248607	9.002195
2183.682000	-9.046698	8.975841	8.975841	8.975841	0.000000	30.000000	0.000000	10.485945	14.703585	9.351348
2183.692000	-9.046698	9.298304	9.298304	9.298304	0.000000	30.000000	0.000000	10.814493	15.158564	9.700500
2183.702000	-9.026134	9.631720	9.631720	9.631720	0.000000	30.000000	0.000000	11.179546	15.539762	10.059351
2183.712000	-9.017693	9.970003	9.970003	9.970003	0.000000	30.000000	0.000000	11.556768	15.994741	10.369709
2183.722000	-9.009253	10.314370	10.314370	10.314370	0.000000	30.000000	0.000000	11.909653	16.425126	10.786752
2183.732000	-9.007508	10.667255	10.667255	10.667255	0.000000	30.000000	0.000000	12.299043	16.818621	11.174699
2183.742000	-8.997127	11.017706	11.017706	11.017706	0.000000	30.000000	0.000000	12.615423	17.261303	11.533550
2183.752000	-8.980357	11.368157	11.368157	11.368157	0.000000	30.000000	0.000000	12.931802	17.679391	11.892401
2183.762000	-8.980357	11.724693	11.724693	11.724693	0.000000	30.000000	0.000000	13.345530	18.134370	12.299745
2183.772000	-8.959788	12.081228	12.081228	12.081228	0.000000	30.000000	0.000000	13.674078	18.589349	12.648898
2183.782000	-8.939024	12.460884	12.460884	12.460884	0.000000	30.000000	0.000000	14.282500	19.413229	13.298709
2183.792000	-8.918450	12.836889	12.836889	12.836889	0.000000	30.000000	0.000000	14.574543	19.868208	13.609067
2183.802000	-8.879059	13.201942	13.201942	13.201942	0.000000	30.000000	0.000000	14.830080	20.347780	13.929123
2183.812000	-8.860244	13.529273	13.529273	13.529273	0.000000	30.000000	0.000000	14.830080	20.347780	13.929123
2183.822000	-8.808625	13.861472	13.861472	13.861472	0.000000	30.000000	0.000000	15.231639	21.282330	14.336468
2183.832000	-8.779623	14.165683	14.165683	14.165683	0.000000	30.000000	0.000000	15.341155	21.761902	14.520742
2183.842000	-8.726040	14.454075	14.454075	14.454075	0.000000	30.000000	0.000000	15.499345	22.229178	14.666223
2183.852000	-8.655617	14.718130	14.718130	14.718130	0.000000	30.000000	0.000000	15.572355	22.708750	14.666223
2183.862000	-8.603811	14.949331	14.949331	14.949331	0.000000	30.000000	0.000000	15.657534	23.163728	14.995978
2183.872000	-8.552197	15.150110	15.150110	15.150110	0.000000	30.000000	0.000000	15.681871	23.581817	15.005676
2183.882000	-8.438394	15.299782	15.299782	15.299782	0.000000	30.000000	0.000000	15.779219	23.987609	15.131759
2183.892000	-8.438394	15.422683	15.422683	15.422683	0.000000	30.000000	0.000000	15.803556	24.344213	15.209348
2183.902000	-8.105430	15.524898	15.524898	15.524898	0.000000	30.000000	0.000000	15.852230	24.651631	15.325733
2183.912000	-7.917390	15.633198	15.633198	15.633198	0.000000	30.000000	0.000000	15.913072	24.934456	15.432418
2183.922000	-7.855384	15.709859	15.709859	15.709859	0.000000	30.000000	0.000000	15.998251	25.131203	15.519706
2183.932000	-7.855384	15.781653	15.781653	15.781653	0.000000	30.000000	0.000000	16.059093	25.364841	15.665186
2183.942000	-7.698356	15.843712	15.843712	15.843712	0.000000	30.000000	0.000000	16.119935	25.438621	15.762173
2183.952000	-7.644715	15.909421	15.909421	15.909421	0.000000	30.000000	0.000000	16.229451	25.598479	15.878557
2183.962000	-7.611689	15.973914	15.973914	15.973914	0.000000	30.000000	0.000000	16.302462	25.647666	16.004640
2183.972000	-7.570303	16.045708	16.045708	16.045708	0.000000	30.000000	0.000000	16.399810	25.635369	16.101627
2183.982000	-7.487522	16.111418	16.111418	16.111418	0.000000	30.000000	0.000000	16.436315	25.610776	16.169517
2183.992000	-7.361498	16.181995	16.181995	16.181995	0.000000	30.000000	0.000000	16.509326	25.512402	16.266504
2184.002000	-7.307839	16.250138	16.250138	16.250138	0.000000	30.000000	0.000000	16.533663	25.401731	16.334395
2184.012000	-7.171425	16.317064	16.317064	16.317064	0.000000	30.000000	0.000000	16.582336	25.204984	16.421683
2184.022000	-7.043349	16.375473	16.375473	16.375473	0.000000	30.000000	0.000000	16.582336	25.032830	16.479875
2184.032000	-6.908818	16.427797	16.427797	16.427797	0.000000	30.000000	0.000000	16.582336	24.725412	16.557465
2184.042000	-6.813775	16.475254	16.475254	16.475254	0.000000	30.000000	0.000000	16.594505	24.454884	16.605958
2184.052000	-6.720678	16.506892	16.506892	16.506892	0.000000	30.000000	0.000000	16.545831	24.159763	16.654451
2184.062000	-6.609405	16.533663	16.533663	16.533663	0.000000	30.000000	0.000000	16.570168	23.815454	16.712643
2184.072000	-6.419376	16.550698	16.550698	16.550698	0.000000	30.000000	0.000000	16.570168	23.458850	16.741739
2184.082000	-6.359349	16.560433	16.560433	16.560433	0.000000	30.000000	0.000000	16.533663	23.077651	16.819329
2184.092000	-6.268614	16.561650	16.561650	16.561650	0.000000	30.000000	0.000000	16.521494	22.647266	16.799931
2184.102000	-6.189926	16.556783	16.556783	16.556783	0.000000	30.000000	0.000000	16.484989	22.278365	16.896918
2184.112000	-6.125838	16.548265	16.548265	16.548265	0.000000	30.000000	0.000000	16.497157	21.860276	16.964809
2184.122000	-6.004116	16.537313	16.537313	16.537313	0.000000	30.000000	0.000000	16.472820	21.466781	16.964809
2184.132000	-5.931830	16.525145	16.525145	16.525145	0.000000	30.000000	0.000000	16.460652	21.048693	17.003604
2184.142000	-5.828508	16.511759	16.511759	16.511759	0.000000	30.000000	0.000000	16.460652	20.212516	17.158783
2184.152000	-5.741836	16.500808	16.500808	16.500808	0.000000	30.000000	0.000000	16.436315	19.843614	17.158783
2184.162000	-5.628151	16.486206	16.486206	16.486206	0.000000	30.000000	0.000000	16.424147	19.450119	17.178180
2184.172000	-5.531184	16.465519	16.465519	16.465519	0.000000	30.000000	0.000000	16.363304	19.032031	17.187879
2184.182000	-5.427890	16.448484	16.448484	16.448484	0.000000	30.000000	0.000000	16.363304	18.749206	17.197577
2184.192000	-5.297731	16.418062	16.418062	16.418062	0.000000	30.000000	0.000000	16.217283	18.454085	17.168481
2184.202000	-5.217128	16.394942	16.394942	16.394942	0.000000	30.000000	0.000000	16.253788	18.208150	17.197577
2184.212000	-5.109775	16.364521	16.364521	16.364521	0.000000	30.000000	0.000000	16.192946	17.986809	17.158783
2184.222000	-5.002417	16.332883	16.332883	16.332883	0.000000	30.000000	0.000000	16.156441	17.802359	17.187879
2184.232000	-5.002417	16.297595	16.297595	16.297595	0.000000	30.000000	0.000000	16.107767	17.667095	17.071494
2184.242000	-4.921991	16.256222	16.256222	16.256222	0.000000	30.000000	0.000000	16.046925	17.544128	17.081193
2184.252000	-4.719761	16.212416	16.212416	16.212416	0.000000	30.000000	0.000000	15.998251	17.458051	17.042398
2184.262000	-4.604207	16.167392	16.167392	16.167392	0.000000	30.000000	0.000000	15.973914	17.396567	17.042398
2184.272000	-4.488661	16.129670	16.129670	16.129670	0.000000	30.000000	0.000000	15.986083	17.359677	17.042398
2184.282000	-4.422576	16.088297	16.088297	16.088297	0.000000	30.000000	0.000000	15.949577	17.396567	17.061796
2184.292000	-4.360624	16.059093	16.059093	16.059093	0.000000	30.000000	0.000000	15.925240	17.396567	17.052097
2184.302000	-4.294530	16.027455	16.027455	16.027455	0.000000	30.000000	0.000000	15.937409	17.494941	16.945412
2184.312000	-4.245090	16.005552	16.005552	16.005552	0.000000	30.000000	0.000000	15.973914	17.630205	17.149084
2184.322000	-4.193522	15.988516	15.988516	15.988516	0.000000	30.000000	0.000000	15.986083	17.753172	17.168481
2184.332000	-4.152270	15.979998	15.979998	15.979998	0.000000	30.000000	0.000000	16.022588	17.974513	17.197577
2184.342000	-4.075795	15.979998	15.979998	15.979998	0.000000	30.000000	0.000000	16.046925	18.195854	17.246071
2184.352000	-3.898090	15.988516	15.988516	15.988516	0.000000	30.000000	0.000000	16.083430	18.490975	17.284865
2184.362000	-3.825781	15.999468	15.999468	15.999468	0.000000	30.000000	0.000000	16.083430	18.798393	17.294564
2184.372000	-3.772000	16.016504	16.016504	16.016504	0.000000	30.000000	0.000000	16.156441	19.191888	17.381852
2184.382000	-3.612823	16.038407	16.038407	16.038407	0.000000	30.000000	0.000000	16.168609	19.597680	17.440044
2184.392000	-3.461778	16.061527	16.061527	16.061527	0.000000	30.000000	0.000000	16.156441	19.966581	17.517634
2184.402000	-3.399839	16.084647	16.084647	16.084647	0.000000	30.000000	0.000000	16.168609	20.519934	17.517634
2184.412000	-3.315171	16.106550	16.106550	16.106550	0.000000	30.000000	0.000000	16.192946	21.011802	17.585524
2184.422000	-3.209804	16.132104	16.132104	16.132104	0.000000	30.000000	0.000000	16.241620	21.552858	17.634018
2184.432000	-3.114790	16.147923	16.147923	16.147923	0.000000	30.000000	0.000000	16.180778	22.069320	17.701908
2184.442000	-3.019778	16.162525	16.162525	16.162525	0.000000	30.000000	0.000000	16.192946	22.573486	17.740703
2184.452000	-2.930898	16.175910	16.175910	16.175910	0.000000	30.000000	0.000000	16.217283	23.065355	17.643716
2184.462000	-2.900070	16.191729	16.191729	16.191729	0.000000	30.000000	0.000000	16.241620	23.544927	17.866786
2184.472000	-2.751520	16.201464	16.201464	16.201464	0.000000	30.000000	0.000000	16.253788	24.012202	17.886183
2184.482000	-2.751520	16.209982	16.209982	16.209982	0.000000	30.000000	0.000000	16.253788	24.430290	17.973471
2184.492000	-2.631522	16.222150	16.222150	16.222150	0.000000	30.000000	0.000000	16.278125	24.848379	18.031663
2184.502000	-2.528428	16.229451	16.229451	16.229451	0.000000	30.000000	0.000000	16.241620	25.254171	18.080157
2184.512000	-2.421069	16.239186	16.239186	16.239186	0.000000	30.000000	0.000000	16.290294	25.610776	18.118952
2184.522000	-2.239445	16.242837	16.242837	16.242837	0.000000	30.000000	0.000000	16.278125	25.955084	18.177144
2184.532000	-2.175553	16.253788	16.253788	16.253788	0.000000	30.000000	0.000000	16.290294	26.262502	18.254733
2184.542000	-2.090929	16.261089	16.261089	16.261089	0.000000	30.000000	0.000000	16.265957	26.508436	18.283829
2184.552000	-2.016671	16.268390	16.268390	16.268390	0.000000	30.000000	0.000000	16.290294	26.951118	18.371117
2184.562000	-1.909319	16.275692	16.275692	16.275692	0.000000	30.000000	0.000000	16.314631	27.049492	18.400213
2184.572000	-1.806297	16.275692	16.275692	16.275692	0.000000	30.000000	0.000000	16.253788	27.098679	18.419611
2184.582000	-1.752462	16.275692	16.275692	16.275692	0.000000	30.000000	0.000000	16.253788	27.098679	18.419611
2184.592000	-1.653152	16.272041	16.272041	16.272041	0.000000	30.000000	0.000000	16.241620	27.061789	18.429309
2184.602000	-1.502343	16.272041	16.272041	16.272041	0.000000	30.000000	0.000000	16.241620	26.975711	18.458405
2184.612000	-1.450862	16.263523	16.263523	16.263523	0.000000	30.000000	0.000000	16.205115	26.877338	18.439008
2184.622000	-1.351538	16.257439	16.257439	16.257439	0.000000	30.000000	0.000000	16.217283	26.668293	18.458405
2184.632000	-1.140818	16.253788	16.253788	16.253788	0.000000	30.000000	0.000000	16.253788	26.496139	18.545693
2184.642000	-1.035854	16.248921	16.248921	16.248921	0.000000	30.000000	0.000000	16.217283	26.311689	18.574789
2184.652000	-0.994753	16.258656	16.258656	16.258656	0.000000	30.000000	0.000000	16.387641	26.041161	18.662077
2184.662000	-0.938859	16.274475	16.274475	16.274475	0.000000	30.000000	0.000000	16.472820	25.733743	18.788160
2184.672000	-0.833918	16.313414	16.313414	16.313414	0.000000	30.000000	0.000000	16.643179	25.463215	18.943339
2184.682000	-0.790774	16.370605	16.370605	16.370605	0.000000	30.000000	0.000000	16.825705	25.143500	19.011230
2184.692000	-0.765614	16.449700	16.449700	16.449700	0.000000	30.000000	0.000000	17.032569	24.762302	19.108217
2184.702000	-0.737283	16.549482	16.549482	16.549482	0.000000	30.000000	0.000000	17.239433	24.479477	19.166409
2184.712000	-0.671384	16.666299	16.666299	16.666299	0.000000	30.000000	0.000000	17.373285	24.085982	19.321588
2184.722000	-0.638237	16.801368	16.801368	16.801368	0.000000	30.000000	0.000000	17.567981	23.729377	19.447670
2184.732000	-0.615479	16.940089	16.940089	16.940089	0.000000	30.000000	0.000000	17.640991	23.348179	19.544657
2184.742000	-0.584746	17.090977	17.090977	17.090977	0.000000	30.000000	0.000000	17.726170	22.966981	19.690137
2184.752000	-0.549574	17.233348	17.233348	17.233348	0.000000	30.000000	0.000000	17.811350	22.610376	19.583452
2184.762000	-0.434233	17.372069	17.372069	17.372069	0.000000	30.000000	0.000000	17.860023	22.241474	19.893809
2184.772000	-0.411471	17.496187	17.496187	17.496187	0.000000	30.000000	0.000000	17.884360	21.835683	19.903508
2184.782000	-0.380748	17.603269	17.603269	17.603269	0.000000	30.000000	0.000000	17.896529	21.528265	19.942303
2184.792000	-0.316879	17.693316	17.693316	17.693316	0.000000	30.000000	0.000000	17.933034	21.196253	20.010194
2184.802000	-0.154001	17.757808	17.757808	17.757808	0.000000	30.000000	0.000000	17.884360	20.851945	19.990796
2184.812000	-0.069813	17.807699	17.807699	17.807699	0.000000	30.000000	0.000000	17.872192	20.532230	19.961700
2184.822000	-0.069813	17.838120	17.838120	17.838120	0.000000	30.000000	0.000000	17.872192	20.200219	20.000495
2184.832000	0.039583	17.857590	17.857118	17.857590	0.005184	30.000000	0.000000	17.835686	19.892801	20.010194
2184.842000	0.200364	17.868541	17.866153	17.868541	0.026272	30.000000	0.000000	17.835686	19.511603	19.981098
2184.852000	0.291509	17.866108	17.862632	17.866108	0.038230	30.000000	0.000000	17.787013	19.277965	20.029591
2184.862000	0.375674	17.856373	17.851895	17.856373	0.049255	30.000000	0.000000	17.762676	18.995140	20.019892
2184.872000	0.449491	17.845421	17.840066	17.845421	0.058912	30.000000	0.000000	17.774844	18.736909	20.019892
2184.882000	0.536111	17.827168	17.820786	17.827168	0.070213	30.000000	0.000000	17.714002	18.503272	20.058687
2184.892000	0.592051	17.804048	17.797007	17.804048	0.077453	30.000000	0.000000	17.701833	18.294227	20.145975
2184.902000	0.663742	17.785796	17.777908	17.785796	0.086763	30.000000	0.000000	17.701833	18.097480	20.233263
2184.912000	0.763178	17.769977	17.760913	17.769977	0.099706	30.000000	0.000000	17.714002	17.937623	20.272058
2184.922000	0.832767	17.750507	17.740625	17.750507	0.108703	30.000000	0.000000	17.677497	17.826952	20.339949
2184.932000	0.899047	17.732255	17.721595	17.732255	0.117260	30.000000	0.000000	17.653160	17.667095	20.388442
2184.942000	1.006324	17.707918	17.695998	17.707918	0.131119	30.000000	0.000000	17.592317	17.617908	20.436935
2184.952000	1.082944	17.673846	17.661040	17.673846	0.140867	30.000000	0.000000	17.446296	17.531831	20.475730
2184.962000	1.179840	17.633690	17.619765	17.633690	0.153172	30.000000	0.000000	17.361117	17.519534	20.563018
2184.972000	1.256460	17.583800	17.569009	17.583800	0.162699	30.000000	0.000000	17.275938	17.482644	20.698800
2184.982000	1.292109	17.535126	17.519956	17.535126	0.166872	30.000000	0.000000	17.227264	17.556424	20.630909
2184.992000	1.351263	17.487669	17.471844	17.487669	0.174074	30.000000	0.000000	17.227264	17.556424	20.630909
2185.002000	1.465625	17.438995	17.421872	17.438995	0.188353	30.000000	0.000000	17.215096	17.703985	20.892773
2185.012000	1.498746	17.390321	17.372858	17.390321	0.192093	30.000000	0.000000	17.227264	17.863842	20.970363
