LabVIEW Measurement	
Writer_Version	0.92
Reader_Version	1
Separator	Tab
Multi_Headings	Yes
X_Columns	One
Time_Pref	Absolute
Operator	LHRI
Description	This is a HULC measurement file.
Date	2010/10/18
Time	20:06:09.313999
***End_of_Header***	
	
Channels	10										
Samples	1709	1709	1709	1709	1709	1709	1709	1709	1709	1709	
Date	2010/10/18	2010/10/18	2010/10/18	2010/10/18	2010/10/18	2010/10/18	2010/10/18	2010/10/18	2010/10/18	2010/10/18	
Time	20:06:27.095999	20:06:27.095999	20:06:27.095999	20:06:27.095999	20:06:27.095999	20:06:27.095999	20:06:27.095999	20:06:27.095999	20:06:27.095999	20:06:27.095999	
X_Dimension	Time	Time	Time	Time	Time	Time	Time	Time	Time	Time	
X0	3.9526399998664856E+3	3.9526399998664856E+3	3.9526399998664856E+3	3.9526399998664856E+3	3.9526399998664856E+3	3.9526399998664856E+3	3.9526399998664856E+3	3.9526399998664856E+3	3.9526399998664856E+3	3.9526399998664856E+3	
Delta_X	0.010000	0.010000	0.010000	0.010000	0.010000	0.010000	0.010000	0.010000	0.010000	0.010000	
***End_of_Header***											
X_Value	Joint Angle (Resampled)	Brachialis Motor Mount (Prime Mover) (Resampled)	Biceps (Resampled)	Brachialis (Resampled)	Brachioradialis (Resampled)	Supinator (Resampled)	Pronator Terres (Resampled)	Brachialis Motor Mount (Resampled)	Triceps Motor Mount (Resampled)	Biceps Motor Mount (Resampled)	Comment
3952.640000	-10.930636	4.036668	4.036668	4.036668	0.000000	30.000000	0.000000	4.036668	11.629406	3.929788
3952.650000	-10.939164	4.018416	4.018416	4.018416	0.000000	30.000000	0.000000	4.000163	11.076053	4.007377
3952.660000	-10.939164	4.016387	4.016387	4.016387	0.000000	30.000000	0.000000	4.012331	10.719449	3.958884
3952.670000	-10.939164	4.012331	4.012331	4.012331	0.000000	30.000000	0.000000	4.000163	10.412031	3.958884
3952.680000	-10.939164	4.009898	4.009898	4.009898	0.000000	30.000000	0.000000	4.000163	10.116909	3.929788
3952.690000	-10.939164	3.998135	3.998135	3.998135	0.000000	30.000000	0.000000	3.939321	9.784898	3.997678
3952.700000	-10.908308	4.003640	4.003640	4.003640	0.000000	30.000000	0.000000	4.036668	9.538964	4.017076
3952.710000	-10.918689	4.007768	4.007768	4.007768	0.000000	30.000000	0.000000	4.036668	9.280732	3.997678
3952.720000	-10.918689	4.019092	4.019092	4.019092	0.000000	30.000000	0.000000	4.109679	9.047095	4.026774
3952.730000	-10.918689	4.034234	4.034234	4.034234	0.000000	30.000000	0.000000	4.170521	8.825754	4.075268
3952.740000	-10.918689	4.052487	4.052487	4.052487	0.000000	30.000000	0.000000	4.219195	8.678193	3.997678
3952.750000	-10.918689	4.087776	4.087776	4.087776	0.000000	30.000000	0.000000	4.353048	8.395369	4.084966
3952.760000	-10.918689	4.137666	4.137666	4.137666	0.000000	30.000000	0.000000	4.511238	8.333885	4.104364
3952.770000	-10.908308	4.205810	4.205810	4.205810	0.000000	30.000000	0.000000	4.681596	8.161731	4.230447
3952.780000	-10.910407	4.289772	4.289772	4.289772	0.000000	30.000000	0.000000	4.839786	8.087951	4.278940
3952.790000	-10.912264	4.401722	4.401722	4.401722	0.000000	30.000000	0.000000	5.058818	8.026467	4.405023
3952.800000	-10.912264	4.523406	4.523406	4.523406	0.000000	30.000000	0.000000	5.253513	8.026467	4.472913
3952.810000	-10.922646	4.669427	4.669427	4.669427	0.000000	30.000000	0.000000	5.496882	8.038764	4.598996
3952.820000	-10.922646	4.832485	4.832485	4.832485	0.000000	30.000000	0.000000	5.740251	8.124841	4.792970
3952.830000	-10.912264	5.016228	5.016228	5.016228	0.000000	30.000000	0.000000	6.007957	8.210918	4.860861
3952.840000	-10.903740	5.221875	5.221875	5.221875	0.000000	30.000000	0.000000	6.275662	8.358479	5.103327
3952.850000	-10.903740	5.444557	5.444557	5.444557	0.000000	30.000000	0.000000	6.579873	8.530633	5.258506
3952.860000	-10.891786	5.683059	5.683059	5.683059	0.000000	30.000000	0.000000	6.896253	8.764270	5.423384
3952.870000	-10.891786	5.936163	5.936163	5.936163	0.000000	30.000000	0.000000	7.212633	8.973314	5.665851
3952.880000	-10.891786	6.200218	6.200218	6.200218	0.000000	30.000000	0.000000	7.480339	9.206952	5.869523
3952.890000	-10.879593	6.480092	6.480092	6.480092	0.000000	30.000000	0.000000	7.857560	9.514370	6.102291
3952.900000	-10.881164	6.778219	6.778219	6.778219	0.000000	30.000000	0.000000	8.234782	9.797195	6.335059
3952.910000	-10.870782	7.089731	7.089731	7.089731	0.000000	30.000000	0.000000	8.612004	10.104613	6.567828
3952.920000	-10.870782	7.415846	7.415846	7.415846	0.000000	30.000000	0.000000	9.001394	10.473514	6.916980
3952.930000	-10.869209	7.757779	7.757779	7.757779	0.000000	30.000000	0.000000	9.427290	10.756339	7.072159
3952.940000	-10.869209	8.114315	8.114315	8.114315	0.000000	30.000000	0.000000	9.841017	11.088350	7.353420
3952.950000	-10.869209	8.480585	8.480585	8.480585	0.000000	30.000000	0.000000	10.242576	11.518735	7.615285
3952.960000	-10.879593	8.904047	8.904047	8.904047	0.000000	30.000000	0.000000	11.130872	12.293429	8.177808
3952.970000	-10.881164	9.344544	9.344544	9.344544	0.000000	30.000000	0.000000	11.617610	12.723814	8.439672
3952.980000	-10.881164	9.758272	9.758272	9.758272	0.000000	30.000000	0.000000	11.617610	12.723814	8.439672
3952.990000	-10.881164	10.175649	10.175649	10.175649	0.000000	30.000000	0.000000	12.031337	13.117309	8.750030
3953.000000	-10.872643	10.641701	10.641701	10.641701	0.000000	30.000000	0.000000	12.895297	13.953486	9.351348
3953.010000	-10.860688	11.110186	11.110186	11.110186	0.000000	30.000000	0.000000	13.296856	14.322387	9.574417
3953.020000	-10.860688	11.579888	11.579888	11.579888	0.000000	30.000000	0.000000	13.698415	14.740476	9.952666
3953.030000	-10.850304	12.044723	12.044723	12.044723	0.000000	30.000000	0.000000	14.075636	15.097080	10.253325
3953.040000	-10.843881	12.502256	12.502256	12.502256	0.000000	30.000000	0.000000	14.416353	15.502872	10.495792
3953.050000	-10.833496	12.958573	12.958573	12.958573	0.000000	30.000000	0.000000	14.805743	15.884071	10.806149
3953.060000	-10.813014	13.357698	13.357698	13.357698	0.000000	30.000000	0.000000	15.122123	16.252972	11.068014
3953.070000	-10.782143	13.747088	13.747088	13.747088	0.000000	30.000000	0.000000	15.511513	16.621874	11.339576
3953.080000	-10.763241	14.168117	14.168117	14.168117	0.000000	30.000000	0.000000	15.827893	16.978479	11.543249
3953.090000	-10.742754	14.570892	14.570892	14.570892	0.000000	30.000000	0.000000	16.059093	17.310490	11.756620
3953.100000	-10.692976	14.916476	14.916476	14.916476	0.000000	30.000000	0.000000	16.351136	17.691688	12.076676
3953.110000	-10.672482	15.240157	15.240157	15.240157	0.000000	30.000000	0.000000	16.533663	18.085183	12.144567
3953.120000	-10.564410	15.548018	15.548018	15.548018	0.000000	30.000000	0.000000	16.777032	18.355711	12.348239
3953.130000	-10.514627	15.833977	15.833977	15.833977	0.000000	30.000000	0.000000	16.935221	18.810690	12.513116
3953.140000	-10.432149	16.107767	16.107767	16.107767	0.000000	30.000000	0.000000	17.154253	19.154998	12.658596
3953.150000	-10.390684	16.358437	16.358437	16.358437	0.000000	30.000000	0.000000	17.312443	19.523899	12.794378
3953.160000	-10.256341	16.590854	16.590854	16.590854	0.000000	30.000000	0.000000	17.446296	19.941988	12.978653
3953.170000	-10.163448	16.805019	16.805019	16.805019	0.000000	30.000000	0.000000	17.653160	20.335483	13.114434
3953.180000	-10.082593	16.999714	16.999714	16.999714	0.000000	30.000000	0.000000	17.774844	20.728978	13.211421
3953.190000	-9.946174	17.191976	17.191976	17.191976	0.000000	30.000000	0.000000	17.981708	21.147066	13.240517
3953.200000	-9.946174	17.370852	17.370852	17.370852	0.000000	30.000000	0.000000	18.139898	21.589748	13.453888
3953.210000	-9.749447	17.542427	17.542427	17.542427	0.000000	30.000000	0.000000	18.249414	22.020133	13.560573
3953.220000	-9.658220	17.701833	17.701833	17.701833	0.000000	30.000000	0.000000	18.371098	22.413628	13.696355
3953.230000	-9.542460	17.858806	17.858806	17.858806	0.000000	30.000000	0.000000	18.504951	22.856310	13.735150
3953.240000	-9.455929	18.003611	18.003611	18.003611	0.000000	30.000000	0.000000	18.602299	23.335882	13.822438
3953.250000	-9.352360	18.138681	18.138681	18.138681	0.000000	30.000000	0.000000	18.663141	23.753971	13.900027
3953.260000	-9.262950	18.277401	18.277401	18.277401	0.000000	30.000000	0.000000	18.833499	24.221246	13.997014
3953.270000	-9.188608	18.402736	18.402736	18.402736	0.000000	30.000000	0.000000	18.906510	24.614741	14.055206
3953.280000	-9.089700	18.528071	18.528071	18.528071	0.000000	30.000000	0.000000	19.028194	25.032830	14.103699
3953.290000	-9.025662	18.642454	18.642454	18.642454	0.000000	30.000000	0.000000	19.125542	25.414028	14.249179
3953.300000	-8.988015	18.753187	18.753187	18.753187	0.000000	30.000000	0.000000	19.247226	25.758336	14.268577
3953.310000	-8.955219	18.860270	18.860270	18.860270	0.000000	30.000000	0.000000	19.320237	26.102644	14.365564
3953.320000	-8.891324	18.964918	18.964918	18.964918	0.000000	30.000000	0.000000	19.417584	26.422359	14.433454
3953.330000	-8.851871	19.065916	19.065916	19.065916	0.000000	30.000000	0.000000	19.514932	26.742074	14.481948
3953.340000	-8.851871	19.169348	19.169348	19.169348	0.000000	30.000000	0.000000	19.636617	27.024898	14.540140
3953.350000	-8.798230	19.275214	19.275214	19.275214	0.000000	30.000000	0.000000	19.721796	27.283129	14.617729
3953.360000	-8.630783	19.388380	19.388380	19.388380	0.000000	30.000000	0.000000	19.965165	27.787295	14.724415
3953.370000	-8.449122	19.506414	19.506414	19.506414	0.000000	30.000000	0.000000	20.086849	28.008636	14.637127
3953.380000	-8.219495	19.612280	19.612280	19.612280	0.000000	30.000000	0.000000	20.086849	28.008636	14.637127
3953.390000	-8.112243	19.716928	19.716928	19.716928	0.000000	30.000000	0.000000	20.172028	28.229977	14.792305
3953.400000	-7.967267	19.831312	19.831312	19.831312	0.000000	30.000000	0.000000	20.391060	28.611175	14.966882
3953.410000	-7.764831	19.949346	19.949346	19.949346	0.000000	30.000000	0.000000	20.500576	28.746439	15.025074
3953.420000	-7.725306	20.066163	20.066163	20.066163	0.000000	30.000000	0.000000	20.585755	28.918593	15.073567
3953.430000	-7.700651	20.181763	20.181763	20.181763	0.000000	30.000000	0.000000	20.670934	29.016967	15.122060
3953.440000	-7.646867	20.296146	20.296146	20.296146	0.000000	30.000000	0.000000	20.780451	29.152231	15.180252
3953.450000	-7.572316	20.408096	20.408096	20.408096	0.000000	30.000000	0.000000	20.841293	29.250605	15.219047
3953.460000	-7.477145	20.505444	20.505444	20.505444	0.000000	30.000000	0.000000	20.938640	29.361275	15.286938
3953.470000	-7.394365	20.593056	20.593056	20.593056	0.000000	30.000000	0.000000	20.962977	29.447352	15.267541
3953.480000	-7.268320	20.692838	20.692838	20.692838	0.000000	30.000000	0.000000	21.084662	29.471946	15.374226
3953.490000	-7.233407	20.788968	20.788968	20.788968	0.000000	30.000000	0.000000	21.133335	29.570319	15.364527
3953.500000	-7.214816	20.869280	20.869280	20.869280	0.000000	30.000000	0.000000	21.194178	29.631803	15.442117
3953.510000	-7.163207	20.941074	20.941074	20.941074	0.000000	30.000000	0.000000	21.218515	29.680990	15.432418
3953.520000	-7.119945	21.010434	21.010434	21.010434	0.000000	30.000000	0.000000	21.279357	29.693287	15.471213
3953.530000	-7.088954	21.067626	21.067626	21.067626	0.000000	30.000000	0.000000	21.242851	29.705583	15.490610
3953.540000	-7.088954	21.116300	21.116300	21.116300	0.000000	30.000000	0.000000	21.267188	29.717880	15.480911
3953.550000	-6.994077	21.161323	21.161323	21.161323	0.000000	30.000000	0.000000	21.291525	29.668693	15.500309
3953.560000	-6.574864	21.195395	21.195395	21.195395	0.000000	30.000000	0.000000	21.279357	29.656396	15.296637
3953.570000	-6.246584	21.223382	21.223382	21.223382	0.000000	30.000000	0.000000	21.242851	29.631803	15.529405
3953.580000	-6.089583	21.240418	21.240418	21.240418	0.000000	30.000000	0.000000	21.255020	29.594913	15.461514
3953.590000	-5.932581	21.253803	21.253803	21.253803	0.000000	30.000000	0.000000	21.267188	29.521133	15.480911
3953.600000	-5.835434	21.261104	21.261104	21.261104	0.000000	30.000000	0.000000	21.267188	29.471946	15.461514
3953.610000	-5.752596	21.263538	21.263538	21.263538	0.000000	30.000000	0.000000	21.242851	29.410462	15.442117
3953.620000	-5.709069	21.262321	21.262321	21.262321	0.000000	30.000000	0.000000	21.267188	29.348978	15.451815
3953.630000	-5.653233	21.261104	21.261104	21.261104	0.000000	30.000000	0.000000	21.230683	29.262901	15.374226
3953.640000	-5.582795	21.257454	21.257454	21.257454	0.000000	30.000000	0.000000	21.230683	29.201418	15.403322
3953.650000	-5.491800	21.251369	21.251369	21.251369	0.000000	30.000000	0.000000	21.230683	29.078451	15.442117
3953.660000	-5.467074	21.246502	21.246502	21.246502	0.000000	30.000000	0.000000	21.230683	28.992374	15.374226
3953.670000	-5.446517	21.248936	21.248936	21.248936	0.000000	30.000000	0.000000	21.267188	28.795626	15.393623
3953.680000	-5.436340	21.250153	21.250153	21.250153	0.000000	30.000000	0.000000	21.267188	28.783329	15.374226
3953.690000	-5.417921	21.250153	21.250153	21.250153	0.000000	30.000000	0.000000	21.267188	28.672659	15.374226
3953.700000	-5.354144	21.251369	21.251369	21.251369	0.000000	30.000000	0.000000	21.279357	28.586582	15.345130
3953.710000	-5.282020	21.259887	21.259887	21.259887	0.000000	30.000000	0.000000	21.328031	28.451318	15.306335
3953.720000	-5.220187	21.261104	21.261104	21.261104	0.000000	30.000000	0.000000	21.279357	28.365241	15.316034
3953.730000	-5.104636	21.269622	21.269622	21.269622	0.000000	30.000000	0.000000	21.315862	28.131603	15.286938
3953.740000	-4.912666	21.278140	21.278140	21.278140	0.000000	30.000000	0.000000	21.315862	27.984043	15.219047
3953.750000	-4.650552	21.286658	21.286658	21.286658	0.000000	30.000000	0.000000	21.315862	27.984043	15.219047
3953.760000	-4.524650	21.293959	21.293959	21.293959	0.000000	30.000000	0.000000	21.303694	27.885669	15.257842
3953.770000	-4.353183	21.293959	21.293959	21.293959	0.000000	30.000000	0.000000	21.267188	27.627438	15.180252
3953.780000	-4.192078	21.292742	21.292742	21.292742	0.000000	30.000000	0.000000	21.255020	27.504470	15.083266
3953.790000	-4.078518	21.284224	21.284224	21.284224	0.000000	30.000000	0.000000	21.182009	27.393800	15.102663
3953.800000	-4.003996	21.279357	21.279357	21.279357	0.000000	30.000000	0.000000	21.230683	27.258536	15.073567
3953.810000	-3.898345	21.262321	21.262321	21.262321	0.000000	30.000000	0.000000	21.157672	27.098679	15.044471
3953.820000	-3.873420	21.250153	21.250153	21.250153	0.000000	30.000000	0.000000	21.157672	26.988008	15.025074
3953.830000	-3.844517	21.230683	21.230683	21.230683	0.000000	30.000000	0.000000	21.121167	26.803557	15.092964
3953.840000	-3.780365	21.205129	21.205129	21.205129	0.000000	30.000000	0.000000	21.060325	26.655997	14.957183
3953.850000	-3.662897	21.178359	21.178359	21.178359	0.000000	30.000000	0.000000	21.048156	26.422359	14.995978
3953.860000	-3.621931	21.151588	21.151588	21.151588	0.000000	30.000000	0.000000	21.035988	26.360875	15.015375
3953.870000	-3.589110	21.127251	21.127251	21.127251	0.000000	30.000000	0.000000	21.023819	26.176425	14.966882
3953.880000	-3.545915	21.100481	21.100481	21.100481	0.000000	30.000000	0.000000	20.987314	26.041161	14.957183
3953.890000	-3.494590	21.079794	21.079794	21.079794	0.000000	30.000000	0.000000	20.975146	25.856710	14.937786
3953.900000	-3.333747	21.048156	21.048156	21.048156	0.000000	30.000000	0.000000	20.914303	25.709149	14.976580
3953.910000	-3.251390	21.020169	21.020169	21.020169	0.000000	30.000000	0.000000	20.877798	25.536995	14.937786
3953.920000	-3.115264	20.981230	20.981230	20.981230	0.000000	30.000000	0.000000	20.768282	25.340248	14.908689
3953.930000	-2.655040	20.931339	20.931339	20.931339	0.000000	30.000000	0.000000	20.622261	25.229577	14.918388
3953.940000	-2.473426	20.874148	20.874148	20.874148	0.000000	30.000000	0.000000	20.488408	25.094313	14.937786
3953.950000	-2.353421	20.803571	20.803571	20.803571	0.000000	30.000000	0.000000	20.342386	24.872972	14.869895
3953.960000	-2.297577	20.728126	20.728126	20.728126	0.000000	30.000000	0.000000	20.281544	24.737708	14.811703
3953.970000	-2.223048	20.635646	20.635646	20.635646	0.000000	30.000000	0.000000	20.099017	24.319620	14.811703
3953.980000	-2.223048	20.563852	20.563852	20.563852	0.000000	30.000000	0.000000	20.269376	24.147466	14.840799
3953.990000	-2.189677	20.499359	20.499359	20.499359	0.000000	30.000000	0.000000	20.330218	23.876938	14.869895
3954.000000	-2.160894	20.450686	20.450686	20.450686	0.000000	30.000000	0.000000	20.427566	23.680191	14.986279
3954.010000	-2.084068	20.417831	20.417831	20.417831	0.000000	30.000000	0.000000	20.549250	23.421959	15.092964
3954.020000	-2.053275	20.402012	20.402012	20.402012	0.000000	30.000000	0.000000	20.610092	23.237509	15.170554
3954.030000	-2.045224	20.408096	20.408096	20.408096	0.000000	30.000000	0.000000	20.683103	23.028464	15.257842
3954.040000	-2.030829	20.429999	20.429999	20.429999	0.000000	30.000000	0.000000	20.707440	22.844014	15.296637
3954.050000	-2.010402	20.470155	20.470155	20.470155	0.000000	30.000000	0.000000	20.743945	22.573486	15.374226
3954.060000	-2.002633	20.517612	20.517612	20.517612	0.000000	30.000000	0.000000	20.756114	22.364442	15.393623
3954.070000	-1.957172	20.583322	20.583322	20.583322	0.000000	30.000000	0.000000	20.756114	22.143101	15.403322
3954.080000	-1.885550	20.641730	20.641730	20.641730	0.000000	30.000000	0.000000	20.853461	21.921760	15.461514
3954.090000	-1.692211	20.705006	20.705006	20.705006	0.000000	30.000000	0.000000	20.962977	21.688122	15.510007
3954.100000	-1.636655	20.771933	20.771933	20.771933	0.000000	30.000000	0.000000	21.096830	21.491374	15.413021
3954.110000	-1.552362	20.841293	20.841293	20.841293	0.000000	30.000000	0.000000	21.242851	21.245440	15.713680
3954.120000	-1.455404	20.922821	20.922821	20.922821	0.000000	30.000000	0.000000	21.425378	21.024099	15.723378
3954.130000	-1.358447	21.017735	21.017735	21.017735	0.000000	30.000000	0.000000	21.632242	20.753571	15.830064
3954.140000	-1.284253	21.129685	21.129685	21.129685	0.000000	30.000000	0.000000	21.826937	20.532230	15.975544
3954.150000	-1.179267	21.251369	21.251369	21.251369	0.000000	30.000000	0.000000	21.960790	20.298593	16.033736
3954.160000	-1.131403	21.392523	21.392523	21.392523	0.000000	30.000000	0.000000	22.167653	20.089548	16.101627
3954.170000	-1.061645	21.548280	21.548280	21.548280	0.000000	30.000000	0.000000	22.313675	19.868208	16.198614
3954.180000	-0.997778	21.707686	21.707686	21.707686	0.000000	30.000000	0.000000	22.447528	19.634570	16.276203
3954.190000	-0.931568	21.867093	21.867093	21.867093	0.000000	30.000000	0.000000	22.557044	19.474712	16.402286
3954.200000	-0.791133	22.014331	22.014331	22.014331	0.000000	30.000000	0.000000	22.569212	19.277965	16.305299
3954.210000	-0.704203	22.143317	22.143317	22.143317	0.000000	30.000000	0.000000	22.532707	19.105811	16.353792
3954.220000	-0.584166	22.247965	22.247965	22.247965	0.000000	30.000000	0.000000	22.471865	18.995140	16.373190
3954.230000	-0.514434	22.327060	22.327060	22.327060	0.000000	30.000000	0.000000	22.423191	18.847580	16.334395
3954.240000	-0.514434	22.385469	22.385469	22.385469	0.000000	30.000000	0.000000	22.411022	18.724613	16.324696
3954.250000	-0.148754	22.425625	22.425625	22.425625	0.000000	30.000000	0.000000	22.362349	18.638536	16.276203
3954.260000	-0.072159	22.445094	22.445094	22.445094	0.000000	30.000000	0.000000	22.362349	18.503272	16.314998
3954.270000	-0.041458	22.451178	22.451178	22.451178	0.000000	30.000000	0.000000	22.374517	18.417195	16.314998
3954.280000	-0.041458	22.451178	22.451178	22.451178	0.000000	30.000000	0.000000	22.447528	18.294227	16.218011
3954.290000	-0.005909	22.462130	22.462130	22.462130	0.000000	30.000000	0.000000	22.666560	18.195854	16.567163
3954.300000	0.002010	22.486467	22.486437	22.486467	0.000331	30.000000	0.000000	22.812581	18.060590	16.751438
3954.310000	0.012359	22.514454	22.514269	22.514454	0.002041	30.000000	0.000000	22.812581	18.060590	16.751438
3954.320000	0.043055	22.565562	22.564914	22.565562	0.007126	30.000000	0.000000	22.982939	18.048293	16.916316
3954.330000	0.117564	22.650741	22.648965	22.650741	0.019536	30.000000	0.000000	23.274982	17.974513	17.226673
3954.340000	0.150688	22.754173	22.751886	22.754173	0.025157	30.000000	0.000000	23.445340	17.999106	17.255769
